File: data/PoleFigure/Rigaku_xrd_110.asc
*TYPE		=  Raw
*CLASS		=  Polefig
*SAMPLE		=  80-90
*COMMENT	=  Alpha-R=80.000
*FNAME		=  pf_Al2O3_110@110.raw
*DATE		=  07-Apr-10 12:19

*GROUP_COUNT	=  1
*GONIO		=  RINT2000 wide angle goniometer, 185
*ATTACHMENT	=  Multipurpose attachment for Pole Fig.
*ASC		=  0, 0, 0.000000, 0.000000
*C_MONOCHRO	=  Fixed Monochromator, 6.708
*SLIT_NAME	=  0, DivSlit
*SLIT_NAME	=  1, SctSlit
*SLIT_NAME	=  2, RecSlit
*SLIT_NAME	=  3, DivH.L.Slit
*COUNTER	=  Scintillation counter, 0
*POS_FORMAT	=  0
*SCAN_AXIS	=  beta
*MEAS_MODE	=  Continuous Scanning
*TARGET		=  29
*XRAY_CHAR	=  K-ALPHA1
*WAVE_LENGTH1	=  1.54056
*WAVE_LENGTH2	=  1.5444
*THICKNESS	=  0, 0.1
*MU		=  0, 65
*SCAN_MODE	=  beta
*SPEED_DIM	=  sec./step
*XUNIT		=  deg.
*YUNIT		=  counts
*SCALE_MODE	=  1
*REP_COUNT	=  1
*SE_COUNT	=  0
*STD_MATERIAL	=  Unknown, Unknown, 0.000000, 0.000000, 0.000000, 0.000000, 0.000000, 0.000000
*LATT_CONS	=  0, Cubic, Unknown, 0.000000, 0.000000, 0.000000, 0.000000, 0.000000, 0.000000
*SEC_COUNT	=  11
*TSPEC_SIZE	=  0
*EXTRA_SIZE	=  0
*PF_MEASUR	=  Coaxial circle scan
*PF_DATATYPE	=  Integral intensity
*PF_METHOD	=  0, Unknown
*PF_METHOD	=  1, Schulz reflection method
*PF_PCOUNT	=  0, 0
*PF_PCOUNT	=  1, 11
*PF_ASTART	=  0, 0.000000
*PF_ASTART	=  1, 80
*PF_ASTOP	=  0, 30
*PF_ASTOP	=  1, 90
*PF_ASTEP	=  0, 10
*PF_ASTEP	=  1, 1
*PF_ASPEED	=  0, 0.000000
*PF_ASPEED	=  1, 0.000000
*PF_GAMMA	=  0, 0.000000
*PF_GAMMA	=  1, 0.000000
*PF_2THANGLE	=  0, 38.417
*PF_2THANGLE	=  1, 37.9
*PF_2THSTART	=  0, 0.000000
*PF_2THSTART	=  1, 0.000000
*PF_2THSTOP	=  0, 0.000000
*PF_2THSTOP	=  1, 0.000000
*PF_2THSTEP	=  0, 0.000000
*PF_2THSTEP	=  1, 0.000000
*PF_ASPEED	=  0, 0.000000
*PF_ASPEED	=  1, 0.000000
*MEMO		=  pf_Al2O3_110@110

*BEGIN
*GROUP		=  0
*START		=  0.000000
*STOP		=  360
*STEP		=  0.5
*OFFSET		=
*SPEED		=  0.0833333
*SLIT_SPEC	=  0, 1/2deg., 0.87, 10
*SLIT_SPEC	=  1, 1/2deg., 0.47, 20
*SLIT_SPEC	=  2, 0.3mm, 0.3, 20
*SLIT_SPEC	=  3, 1.2mm, 8, 1.2
*KV		=  20
*MA		=  10
*LOW		=  0.000000
*HIGH		=  0.000000
*CTEMPER	=  0, 0.000000
*CTEMPER	=  1, 0.000000
*CTEMPER	=  2, 0.000000
*PAREX		=  0, 0.000000
*PAREX		=  1, 0.000000
*PAREX		=  2, 0.000000
*PAREX		=  3, 0.000000
*PAREX		=  4, 0.000000
*PAREX		=  5, 0.000000
*PAREX		=  6, 0.000000
*PAREX		=  7, 0.000000
*PAREX		=  8, 0.000000
*PAREX		=  9, 0.000000
*PAREX		=  10, 0.000000
*PAREX		=  11, 0.000000
*PAREX		=  12, 0.000000
*PAREX		=  13, 0.000000
*PAREX		=  14, 0.000000
*PAREX		=  15, 0.000000
*FULL_SCALE	=  100
*PF_AANGLE	=  80
*PF_BANGLE	=  0.000000
*INDEX		=  1, 1, 1
*COUNT		=  721
0.000000, 0.000000, 0.000000, 1
0.000000, 0.000000, 0.000000, 0.000000
0.000000, 0.000000, 0.000000, 0.000000
0.000000, 0.000000, 0.000000, 0.000000
0.000000, 0.000000, 0.000000, 0.000000
0.000000, 0.000000, 0.000000, 0.000000
0.000000, 0.000000, 0.000000, 0.000000
0.000000, 0.000000, 0.000000, 0.000000
0.000000, 0.000000, 0.000000, 0.000000
0.000000, 0.000000, 0.000000, 0.000000
0.000000, 0.000000, 0.000000, 0.000000
0.000000, 0.000000, 0.000000, 0.000000
0.000000, 0.000000, 0.000000, 0.000000
0.000000, 0.000000, 0.000000, 0.000000
0.000000, 0.000000, 0.000000, 1
0.000000, 0.000000, 0.000000, 0.000000
0.000000, 0.000000, 0.000000, 0.000000
0.000000, 0.000000, 0.000000, 0.000000
0.000000, 0.000000, 0.000000, 0.000000
0.000000, 0.000000, 0.000000, 0.000000
0.000000, 0.000000, 0.000000, 0.000000
0.000000, 0.000000, 0.000000, 0.000000
0.000000, 0.000000, 0.000000, 0.000000
0.000000, 0.000000, 0.000000, 0.000000
1, 0.000000, 0.000000, 0.000000
0.000000, 0.000000, 0.000000, 0.000000
0.000000, 0.000000, 0.000000, 0.000000
0.000000, 0.000000, 0.000000, 0.000000
0.000000, 0.000000, 0.000000, 0.000000
0.000000, 0.000000, 0.000000, 0.000000
0.000000, 0.000000, 0.000000, 0.000000
0.000000, 0.000000, 0.000000, 0.000000
0.000000, 0.000000, 0.000000, 0.000000
0.000000, 0.000000, 0.000000, 0.000000
0.000000, 0.000000, 0.000000, 0.000000
0.000000, 0.000000, 0.000000, 0.000000
0.000000, 0.000000, 0.000000, 0.000000
0.000000, 0.000000, 0.000000, 0.000000
0.000000, 0.000000, 0.000000, 0.000000
0.000000, 0.000000, 0.000000, 0.000000
0.000000, 0.000000, 1, 0.000000
0.000000, 0.000000, 0.000000, 0.000000
0.000000, 0.000000, 0.000000, 0.000000
0.000000, 0.000000, 0.000000, 0.000000
0.000000, 0.000000, 0.000000, 0.000000
0.000000, 0.000000, 0.000000, 0.000000
0.000000, 0.000000, 0.000000, 0.000000
0.000000, 0.000000, 0.000000, 0.000000
0.000000, 0.000000, 0.000000, 0.000000
0.000000, 0.000000, 0.000000, 0.000000
0.000000, 0.000000, 0.000000, 0.000000
0.000000, 0.000000, 0.000000, 0.000000
0.000000, 0.000000, 0.000000, 1
0.000000, 0.000000, 0.000000, 0.000000
0.000000, 0.000000, 0.000000, 0.000000
0.000000, 0.000000, 0.000000, 0.000000
0.000000, 0.000000, 0.000000, 0.000000
0.000000, 0.000000, 0.000000, 0.000000
0.000000, 0.000000, 0.000000, 0.000000
0.000000, 0.000000, 0.000000, 0.000000
0.000000, 0.000000, 0.000000, 0.000000
0.000000, 0.000000, 0.000000, 0.000000
0.000000, 1, 0.000000, 0.000000
0.000000, 0.000000, 0.000000, 0.000000
0.000000, 0.000000, 0.000000, 0.000000
0.000000, 0.000000, 0.000000, 0.000000
0.000000, 0.000000, 0.000000, 0.000000
0.000000, 0.000000, 0.000000, 0.000000
0.000000, 0.000000, 0.000000, 1
0.000000, 0.000000, 0.000000, 0.000000
0.000000, 0.000000, 0.000000, 0.000000
0.000000, 0.000000, 0.000000, 0.000000
0.000000, 0.000000, 1, 0.000000
0.000000, 0.000000, 0.000000, 0.000000
0.000000, 0.000000, 0.000000, 0.000000
0.000000, 1, 0.000000, 0.000000
0.000000, 0.000000, 0.000000, 0.000000
0.000000, 0.000000, 0.000000, 0.000000
0.000000, 0.000000, 0.000000, 0.000000
0.000000, 0.000000, 1, 0.000000
0.000000, 0.000000, 0.000000, 0.000000
0.000000, 0.000000, 0.000000, 0.000000
0.000000, 0.000000, 0.000000, 0.000000
0.000000, 0.000000, 0.000000, 0.000000
0.000000, 0.000000, 0.000000, 0.000000
0.000000, 0.000000, 0.000000, 0.000000
0.000000, 0.000000, 0.000000, 0.000000
0.000000, 0.000000, 0.000000, 0.000000
0.000000, 0.000000, 0.000000, 0.000000
0.000000, 0.000000, 0.000000, 0.000000
0.000000, 0.000000, 0.000000, 0.000000
0.000000, 0.000000, 0.000000, 0.000000
0.000000, 0.000000, 0.000000, 0.000000
1, 0.000000, 0.000000, 0.000000
0.000000, 0.000000, 0.000000, 0.000000
0.000000, 0.000000, 0.000000, 0.000000
0.000000, 0.000000, 0.000000, 0.000000
0.000000, 0.000000, 0.000000, 0.000000
0.000000, 0.000000, 0.000000, 0.000000
0.000000, 0.000000, 0.000000, 0.000000
1, 0.000000, 0.000000, 0.000000
0.000000, 0.000000, 0.000000, 0.000000
0.000000, 0.000000, 0.000000, 0.000000
0.000000, 0.000000, 0.000000, 0.000000
0.000000, 0.000000, 0.000000, 0.000000
0.000000, 0.000000, 0.000000, 1
1, 0.000000, 0.000000, 0.000000
0.000000, 0.000000, 0.000000, 0.000000
0.000000, 0.000000, 0.000000, 0.000000
0.000000, 0.000000, 0.000000, 0.000000
0.000000, 1, 0.000000, 0.000000
0.000000, 0.000000, 0.000000, 0.000000
0.000000, 0.000000, 0.000000, 0.000000
0.000000, 0.000000, 0.000000, 0.000000
0.000000, 0.000000, 0.000000, 0.000000
0.000000, 0.000000, 0.000000, 0.000000
0.000000, 0.000000, 0.000000, 0.000000
0.000000, 0.000000, 0.000000, 0.000000
0.000000, 0.000000, 0.000000, 0.000000
0.000000, 0.000000, 0.000000, 0.000000
0.000000, 0.000000, 0.000000, 0.000000
0.000000, 0.000000, 0.000000, 0.000000
0.000000, 0.000000, 0.000000, 0.000000
0.000000, 0.000000, 0.000000, 1
0.000000, 0.000000, 0.000000, 0.000000
0.000000, 0.000000, 0.000000, 0.000000
0.000000, 0.000000, 0.000000, 0.000000
0.000000, 1, 0.000000, 0.000000
0.000000, 0.000000, 0.000000, 0.000000
0.000000, 0.000000, 0.000000, 0.000000
0.000000, 0.000000, 0.000000, 0.000000
0.000000, 0.000000, 0.000000, 0.000000
0.000000, 0.000000, 1, 0.000000
0.000000, 1, 0.000000, 0.000000
0.000000, 0.000000, 0.000000, 0.000000
0.000000, 0.000000, 0.000000, 0.000000
0.000000, 0.000000, 0.000000, 0.000000
0.000000, 0.000000, 0.000000, 0.000000
0.000000, 0.000000, 0.000000, 0.000000
0.000000, 0.000000, 0.000000, 0.000000
0.000000, 0.000000, 0.000000, 0.000000
0.000000, 0.000000, 0.000000, 0.000000
0.000000, 0.000000, 0.000000, 0.000000
0.000000, 0.000000, 0.000000, 0.000000
0.000000, 0.000000, 0.000000, 0.000000
0.000000, 0.000000, 0.000000, 0.000000
0.000000, 0.000000, 0.000000, 0.000000
0.000000, 0.000000, 0.000000, 0.000000
0.000000, 0.000000, 1, 0.000000
0.000000, 0.000000, 0.000000, 0.000000
0.000000, 0.000000, 0.000000, 0.000000
0.000000, 0.000000, 1, 0.000000
0.000000, 0.000000, 0.000000, 0.000000
0.000000, 0.000000, 0.000000, 0.000000
0.000000, 0.000000, 0.000000, 0.000000
0.000000, 0.000000, 0.000000, 1
0.000000, 0.000000, 0.000000, 0.000000
0.000000, 0.000000, 0.000000, 0.000000
0.000000, 0.000000, 0.000000, 0.000000
0.000000, 0.000000, 0.000000, 0.000000
0.000000, 0.000000, 0.000000, 0.000000
0.000000, 0.000000, 0.000000, 0.000000
0.000000, 0.000000, 0.000000, 0.000000
0.000000, 0.000000, 1, 0.000000
0.000000, 0.000000, 0.000000, 0.000000
0.000000, 0.000000, 0.000000, 0.000000
0.000000, 0.000000, 0.000000, 0.000000
0.000000, 0.000000, 0.000000, 0.000000
0.000000, 0.000000, 0.000000, 0.000000
0.000000, 0.000000, 0.000000, 0.000000
0.000000, 0.000000, 0.000000, 0.000000
0.000000, 0.000000, 0.000000, 0.000000
0.000000, 0.000000, 0.000000, 0.000000
0.000000, 0.000000, 0.000000, 1
0.000000, 0.000000, 0.000000, 0.000000
0.000000, 0.000000, 0.000000, 0.000000
0.000000, 0.000000, 0.000000, 0.000000
0.000000, 0.000000, 0.000000, 0.000000
0.000000, 0.000000, 0.000000, 0.000000
1, 0.000000, 0.000000, 1
0.000000
*END

*BEGIN
*GROUP		=  0
*START		=  0.000000
*STOP		=  360
*STEP		=  0.5
*OFFSET		=
*SPEED		=  0.0833333
*SLIT_SPEC	=  0, 1/2deg., 0.87, 10
*SLIT_SPEC	=  1, 1/2deg., 0.47, 20
*SLIT_SPEC	=  2, 0.3mm, 0.3, 20
*SLIT_SPEC	=  3, 1.2mm, 8, 1.2
*KV		=  20
*MA		=  10
*LOW		=  0.000000
*HIGH		=  0.000000
*CTEMPER	=  0, 0.000000
*CTEMPER	=  1, 0.000000
*CTEMPER	=  2, 0.000000
*PAREX		=  0, 0.000000
*PAREX		=  1, 0.000000
*PAREX		=  2, 0.000000
*PAREX		=  3, 0.000000
*PAREX		=  4, 0.000000
*PAREX		=  5, 0.000000
*PAREX		=  6, 0.000000
*PAREX		=  7, 0.000000
*PAREX		=  8, 0.000000
*PAREX		=  9, 0.000000
*PAREX		=  10, 0.000000
*PAREX		=  11, 0.000000
*PAREX		=  12, 0.000000
*PAREX		=  13, 0.000000
*PAREX		=  14, 0.000000
*PAREX		=  15, 0.000000
*FULL_SCALE	=  100
*PF_AANGLE	=  81
*PF_BANGLE	=  0.000000
*INDEX		=  1, 1, 1
*COUNT		=  721
0.000000, 1, 0.000000, 0.000000
0.000000, 0.000000, 0.000000, 0.000000
0.000000, 0.000000, 0.000000, 0.000000
0.000000, 0.000000, 0.000000, 0.000000
0.000000, 0.000000, 1, 0.000000
1, 1, 0.000000, 0.000000
0.000000, 0.000000, 0.000000, 0.000000
0.000000, 0.000000, 0.000000, 0.000000
0.000000, 0.000000, 0.000000, 0.000000
1, 0.000000, 0.000000, 0.000000
0.000000, 0.000000, 0.000000, 0.000000
0.000000, 0.000000, 0.000000, 0.000000
0.000000, 0.000000, 0.000000, 0.000000
0.000000, 0.000000, 0.000000, 0.000000
0.000000, 0.000000, 0.000000, 0.000000
0.000000, 0.000000, 0.000000, 0.000000
0.000000, 0.000000, 0.000000, 0.000000
0.000000, 0.000000, 0.000000, 0.000000
0.000000, 0.000000, 0.000000, 0.000000
0.000000, 0.000000, 0.000000, 0.000000
0.000000, 0.000000, 0.000000, 0.000000
0.000000, 0.000000, 0.000000, 0.000000
0.000000, 0.000000, 0.000000, 0.000000
0.000000, 0.000000, 0.000000, 0.000000
0.000000, 0.000000, 0.000000, 0.000000
0.000000, 0.000000, 0.000000, 0.000000
0.000000, 0.000000, 0.000000, 0.000000
0.000000, 0.000000, 0.000000, 0.000000
0.000000, 0.000000, 0.000000, 0.000000
0.000000, 0.000000, 0.000000, 0.000000
0.000000, 0.000000, 0.000000, 0.000000
0.000000, 0.000000, 0.000000, 0.000000
0.000000, 0.000000, 0.000000, 0.000000
0.000000, 0.000000, 0.000000, 0.000000
0.000000, 0.000000, 0.000000, 0.000000
0.000000, 0.000000, 0.000000, 0.000000
0.000000, 0.000000, 0.000000, 0.000000
0.000000, 0.000000, 0.000000, 0.000000
0.000000, 0.000000, 0.000000, 0.000000
0.000000, 0.000000, 0.000000, 0.000000
0.000000, 0.000000, 0.000000, 0.000000
0.000000, 0.000000, 0.000000, 0.000000
0.000000, 0.000000, 0.000000, 0.000000
0.000000, 0.000000, 0.000000, 0.000000
0.000000, 0.000000, 0.000000, 0.000000
0.000000, 0.000000, 0.000000, 0.000000
0.000000, 0.000000, 0.000000, 0.000000
0.000000, 0.000000, 0.000000, 0.000000
0.000000, 0.000000, 0.000000, 0.000000
0.000000, 0.000000, 0.000000, 0.000000
0.000000, 0.000000, 0.000000, 0.000000
0.000000, 0.000000, 0.000000, 0.000000
0.000000, 0.000000, 0.000000, 0.000000
0.000000, 0.000000, 0.000000, 0.000000
0.000000, 0.000000, 0.000000, 0.000000
0.000000, 0.000000, 0.000000, 0.000000
0.000000, 0.000000, 0.000000, 0.000000
0.000000, 0.000000, 0.000000, 0.000000
0.000000, 0.000000, 0.000000, 0.000000
0.000000, 0.000000, 0.000000, 0.000000
0.000000, 0.000000, 0.000000, 0.000000
0.000000, 0.000000, 1, 0.000000
0.000000, 0.000000, 0.000000, 0.000000
0.000000, 0.000000, 0.000000, 0.000000
0.000000, 0.000000, 0.000000, 0.000000
0.000000, 0.000000, 0.000000, 0.000000
0.000000, 0.000000, 0.000000, 0.000000
0.000000, 0.000000, 0.000000, 0.000000
0.000000, 0.000000, 0.000000, 0.000000
0.000000, 0.000000, 0.000000, 0.000000
0.000000, 0.000000, 0.000000, 0.000000
0.000000, 0.000000, 0.000000, 0.000000
0.000000, 0.000000, 0.000000, 0.000000
0.000000, 0.000000, 0.000000, 0.000000
0.000000, 0.000000, 0.000000, 0.000000
1, 0.000000, 0.000000, 0.000000
1, 0.000000, 0.000000, 0.000000
0.000000, 0.000000, 0.000000, 0.000000
0.000000, 0.000000, 0.000000, 0.000000
0.000000, 0.000000, 0.000000, 0.000000
0.000000, 0.000000, 0.000000, 0.000000
0.000000, 0.000000, 0.000000, 0.000000
0.000000, 0.000000, 0.000000, 0.000000
0.000000, 0.000000, 0.000000, 0.000000
0.000000, 0.000000, 0.000000, 0.000000
0.000000, 0.000000, 0.000000, 0.000000
0.000000, 0.000000, 0.000000, 0.000000
0.000000, 0.000000, 0.000000, 0.000000
0.000000, 0.000000, 0.000000, 0.000000
0.000000, 1, 0.000000, 0.000000
0.000000, 0.000000, 0.000000, 0.000000
0.000000, 0.000000, 0.000000, 0.000000
0.000000, 0.000000, 0.000000, 0.000000
0.000000, 1, 0.000000, 0.000000
0.000000, 0.000000, 0.000000, 0.000000
0.000000, 0.000000, 0.000000, 0.000000
0.000000, 0.000000, 0.000000, 0.000000
0.000000, 0.000000, 0.000000, 0.000000
0.000000, 0.000000, 1, 0.000000
0.000000, 0.000000, 0.000000, 0.000000
0.000000, 1, 0.000000, 0.000000
0.000000, 0.000000, 0.000000, 1
0.000000, 0.000000, 0.000000, 0.000000
0.000000, 0.000000, 0.000000, 1
0.000000, 0.000000, 0.000000, 0.000000
0.000000, 0.000000, 0.000000, 0.000000
0.000000, 0.000000, 0.000000, 0.000000
1, 0.000000, 0.000000, 0.000000
0.000000, 0.000000, 0.000000, 0.000000
0.000000, 0.000000, 1, 0.000000
0.000000, 0.000000, 0.000000, 0.000000
0.000000, 0.000000, 0.000000, 0.000000
0.000000, 0.000000, 0.000000, 0.000000
0.000000, 0.000000, 0.000000, 0.000000
0.000000, 0.000000, 0.000000, 0.000000
1, 0.000000, 0.000000, 0.000000
0.000000, 0.000000, 0.000000, 0.000000
0.000000, 0.000000, 0.000000, 0.000000
0.000000, 0.000000, 0.000000, 0.000000
0.000000, 0.000000, 0.000000, 0.000000
1, 0.000000, 0.000000, 0.000000
0.000000, 0.000000, 0.000000, 0.000000
0.000000, 0.000000, 0.000000, 0.000000
0.000000, 0.000000, 0.000000, 0.000000
0.000000, 0.000000, 0.000000, 0.000000
0.000000, 0.000000, 0.000000, 0.000000
0.000000, 0.000000, 0.000000, 0.000000
0.000000, 0.000000, 0.000000, 0.000000
0.000000, 0.000000, 0.000000, 0.000000
0.000000, 0.000000, 0.000000, 0.000000
0.000000, 0.000000, 0.000000, 1
0.000000, 0.000000, 0.000000, 0.000000
1, 0.000000, 0.000000, 0.000000
0.000000, 0.000000, 0.000000, 0.000000
0.000000, 0.000000, 0.000000, 0.000000
0.000000, 0.000000, 0.000000, 0.000000
0.000000, 0.000000, 0.000000, 1
0.000000, 0.000000, 1, 0.000000
0.000000, 0.000000, 0.000000, 0.000000
0.000000, 1, 0.000000, 1
0.000000, 0.000000, 0.000000, 0.000000
0.000000, 0.000000, 0.000000, 0.000000
0.000000, 0.000000, 0.000000, 0.000000
0.000000, 0.000000, 0.000000, 0.000000
0.000000, 1, 0.000000, 0.000000
0.000000, 0.000000, 0.000000, 0.000000
0.000000, 0.000000, 0.000000, 1
0.000000, 0.000000, 0.000000, 0.000000
0.000000, 0.000000, 0.000000, 0.000000
0.000000, 0.000000, 0.000000, 0.000000
0.000000, 0.000000, 0.000000, 0.000000
0.000000, 0.000000, 0.000000, 0.000000
0.000000, 0.000000, 0.000000, 0.000000
1, 0.000000, 0.000000, 0.000000
1, 0.000000, 0.000000, 0.000000
0.000000, 0.000000, 0.000000, 0.000000
0.000000, 0.000000, 1, 0.000000
0.000000, 0.000000, 0.000000, 0.000000
0.000000, 0.000000, 0.000000, 0.000000
0.000000, 0.000000, 0.000000, 0.000000
0.000000, 0.000000, 0.000000, 0.000000
0.000000, 0.000000, 0.000000, 0.000000
0.000000, 0.000000, 0.000000, 0.000000
0.000000, 0.000000, 0.000000, 0.000000
0.000000, 0.000000, 1, 0.000000
0.000000, 0.000000, 0.000000, 0.000000
0.000000, 1, 0.000000, 0.000000
0.000000, 0.000000, 0.000000, 0.000000
0.000000, 0.000000, 0.000000, 0.000000
0.000000, 0.000000, 0.000000, 0.000000
0.000000, 0.000000, 0.000000, 0.000000
0.000000, 0.000000, 0.000000, 2
0.000000, 0.000000, 0.000000, 0.000000
0.000000, 0.000000, 0.000000, 1
0.000000, 0.000000, 0.000000, 0.000000
0.000000, 0.000000, 0.000000, 0.000000
0.000000, 0.000000, 0.000000, 0.000000
0.000000, 0.000000, 0.000000, 1
0.000000, 0.000000, 1, 0.000000
0.000000, 0.000000, 0.000000, 0.000000
0.000000
*END

*BEGIN
*GROUP		=  0
*START		=  0.000000
*STOP		=  360
*STEP		=  0.5
*OFFSET		=
*SPEED		=  0.0833333
*SLIT_SPEC	=  0, 1/2deg., 0.87, 10
*SLIT_SPEC	=  1, 1/2deg., 0.47, 20
*SLIT_SPEC	=  2, 0.3mm, 0.3, 20
*SLIT_SPEC	=  3, 1.2mm, 8, 1.2
*KV		=  20
*MA		=  10
*LOW		=  0.000000
*HIGH		=  0.000000
[...]
1, 1, 0.000000, 2
1, 0.000000, 0.000000, 1
1, 0.000000, 1, 0.000000
1, 0.000000, 4, 2
0.000000, 0.000000, 0.000000, 1
1, 2, 0.000000, 2
1, 2, 0.000000, 1
1, 0.000000, 2, 1
0.000000, 1, 3, 1
0.000000, 1, 2, 0.000000
3, 0.000000, 1, 0.000000
2, 1, 0.000000, 2
1, 1, 3, 5
1, 0.000000, 1, 1
1, 3, 3, 3
2, 3, 2, 1
3, 6, 0.000000, 2
0.000000, 0.000000, 5, 2
2, 0.000000, 1, 0.000000
1, 0.000000, 3, 4
1, 2, 2, 2
4, 0.000000, 3, 4
2, 4, 3, 4
4, 2, 1, 5
1, 3, 2, 3
6, 7, 5, 4
5, 3, 7, 4
3, 3, 5, 3
5, 2, 4, 4
7, 5, 6, 8
3, 7, 5, 5
8, 5, 5, 4
7, 3, 9, 14
5, 9, 7, 7
8, 9, 11, 8
17, 14, 16, 21
15, 18, 16, 20
17, 16, 16, 16
15, 22, 24, 25
21, 16, 25, 25
24, 23, 18, 25
24, 31, 34, 34
33, 23, 34, 37
46, 50, 54, 60
54, 48, 42, 56
63, 71, 65, 71
67, 72, 80, 89
108, 93, 115, 129
137, 139, 159, 174
223, 345, 681, 1919
4209, 5697, 6146, 6092
6076, 5589, 5128, 4573
3892, 3582, 3138, 2668
2104, 1397, 846, 510
282, 141, 134, 107
112, 86, 77, 67
73, 61, 71, 65
81, 60, 52, 40
47, 36, 34, 32
41, 30, 27, 39
22, 24, 25, 22
23, 16, 26, 23
16, 20, 22, 17
15, 18, 20, 11
10, 13, 15, 17
11, 13, 10, 11
11, 13, 8, 11
7, 8, 7, 12
9, 8, 6, 7
7, 15, 5, 14
7, 4, 7, 9
2, 5, 13, 2
10, 5, 3, 4
3, 5, 6, 2
3, 7, 2, 3
4, 1, 3, 3
2, 1, 4, 0.000000
1, 2, 2, 6
3, 6, 2, 6
1, 1, 4, 4
1, 3, 3, 3
1, 1, 2, 2
2, 0.000000, 4, 2
1, 1, 3, 0.000000
2, 2, 2, 1
0.000000, 2, 2, 0.000000
1, 2, 0.000000, 1
1, 4, 1, 1
1, 0.000000, 0.000000, 6
1, 3, 0.000000, 5
0.000000, 1, 1, 3
1, 1, 1, 1
2, 3, 0.000000, 0.000000
0.000000, 1, 2, 0.000000
2, 0.000000, 2, 1
3, 0.000000, 2, 2
1, 1, 1, 0.000000
0.000000
*END

*BEGIN
*GROUP		=  0
*START		=  0.000000
*STOP		=  360
*STEP		=  0.5
*OFFSET		=
*SPEED		=  0.0833333
*SLIT_SPEC	=  0, 1/2deg., 0.87, 10
*SLIT_SPEC	=  1, 1/2deg., 0.47, 20
*SLIT_SPEC	=  2, 0.3mm, 0.3, 20
*SLIT_SPEC	=  3, 1.2mm, 8, 1.2
*KV		=  20
*MA		=  10
*LOW		=  0.000000
*HIGH		=  0.000000
*CTEMPER	=  0, 0.000000
*CTEMPER	=  1, 0.000000
*CTEMPER	=  2, 0.000000
*PAREX		=  0, 0.000000
*PAREX		=  1, 0.000000
*PAREX		=  2, 0.000000
*PAREX		=  3, 0.000000
*PAREX		=  4, 0.000000
*PAREX		=  5, 0.000000
*PAREX		=  6, 0.000000
*PAREX		=  7, 0.000000
*PAREX		=  8, 0.000000
*PAREX		=  9, 0.000000
*PAREX		=  10, 0.000000
*PAREX		=  11, 0.000000
*PAREX		=  12, 0.000000
*PAREX		=  13, 0.000000
*PAREX		=  14, 0.000000
*PAREX		=  15, 0.000000
*FULL_SCALE	=  100
*PF_AANGLE	=  89
*PF_BANGLE	=  0.000000
*INDEX		=  1, 1, 1
*COUNT		=  721
1, 1, 2, 2
1, 3, 1, 3
4, 0.000000, 0.000000, 4
1, 0.000000, 1, 1
3, 0.000000, 1, 3
2, 4, 1, 2
3, 2, 0.000000, 3
2, 2, 2, 1
0.000000, 1, 2, 1
1, 3, 0.000000, 3
1, 3, 0.000000, 0.000000
4, 2, 0.000000, 4
4, 2, 2, 1
1, 1, 1, 4
0.000000, 3, 2, 6
1, 1, 4, 3
1, 2, 2, 1
3, 2, 2, 3
4, 2, 2, 1
2, 4, 1, 2
3, 1, 1, 1
3, 3, 1, 7
4, 5, 2, 4
1, 2, 2, 2
4, 1, 7, 4
6, 3, 1, 6
2, 4, 4, 4
1, 2, 4, 3
5, 8, 7, 5
5, 4, 5, 7
4, 4, 4, 6
14, 8, 8, 4
6, 4, 7, 5
14, 3, 5, 7
10, 9, 5, 5
6, 7, 10, 9
10, 12, 13, 7
12, 13, 19, 21
14, 23, 11, 14
20, 16, 23, 27
28, 22, 26, 29
32, 63, 105, 175
246, 322, 416, 589
657, 868, 1126, 1240
1208, 1352, 1423, 1279
1036, 669, 309, 111
53, 41, 43, 35
41, 16, 29, 18
21, 16, 13, 23
19, 11, 18, 14
21, 16, 8, 14
10, 5, 12, 12
6, 13, 13, 8
9, 10, 9, 5
1, 13, 5, 8
5, 4, 4, 7
5, 4, 8, 10
8, 2, 6, 7
7, 3, 3, 8
1, 5, 5, 7
5, 3, 4, 5
0.000000, 4, 2, 1
4, 1, 1, 2
1, 1, 1, 1
3, 3, 0.000000, 5
3, 5, 2, 1
0.000000, 7, 4, 0.000000
1, 0.000000, 2, 1
2, 0.000000, 1, 2
3, 3, 3, 2
2, 2, 1, 3
4, 2, 4, 1
2, 3, 2, 2
1, 0.000000, 1, 2
0.000000, 0.000000, 0.000000, 2
0.000000, 1, 1, 1
2, 2, 0.000000, 0.000000
1, 1, 0.000000, 0.000000
0.000000, 1, 3, 4
1, 3, 1, 0.000000
1, 1, 1, 1
3, 1, 0.000000, 0.000000
2, 0.000000, 3, 0.000000
2, 2, 1, 2
2, 1, 0.000000, 3
0.000000, 0.000000, 2, 0.000000
0.000000, 4, 0.000000, 0.000000
0.000000, 4, 1, 2
4, 1, 3, 2
3, 1, 1, 2
1, 1, 2, 3
3, 2, 3, 2
0.000000, 3, 2, 1
2, 1, 2, 2
3, 3, 3, 1
2, 1, 3, 1
0.000000, 2, 3, 3
2, 3, 3, 2
3, 3, 2, 2
3, 1, 1, 3
0.000000, 2, 0.000000, 6
3, 1, 2, 2
2, 0.000000, 1, 2
2, 1, 6, 2
2, 2, 3, 3
5, 3, 1, 2
2, 2, 1, 5
5, 0.000000, 3, 0.000000
1, 1, 4, 6
3, 2, 1, 5
4, 3, 1, 1
5, 5, 3, 10
4, 2, 8, 1
2, 7, 5, 3
3, 1, 5, 5
9, 3, 6, 5
8, 5, 2, 12
5, 4, 10, 9
8, 8, 6, 10
6, 11, 9, 6
8, 9, 10, 12
9, 13, 8, 12
11, 6, 9, 16
12, 12, 17, 22
21, 25, 20, 17
12, 17, 18, 22
22, 20, 23, 27
33, 30, 24, 32
34, 47, 37, 49
30, 40, 52, 51
53, 63, 60, 72
62, 75, 88, 117
148, 211, 660, 1440
2380, 2772, 2765, 2719
2405, 2552, 2393, 2258
1862, 1704, 1388, 1141
848, 586, 374, 260
149, 79, 54, 58
49, 41, 47, 34
39, 41, 33, 31
29, 28, 20, 25
25, 26, 16, 30
17, 16, 20, 23
22, 19, 19, 12
16, 11, 17, 13
13, 13, 15, 9
9, 8, 16, 7
8, 11, 8, 12
5, 9, 7, 4
9, 10, 4, 6
6, 7, 4, 6
6, 4, 9, 2
4, 4, 4, 7
5, 6, 4, 3
6, 0.000000, 2, 8
3, 5, 3, 4
2, 4, 4, 3
3, 3, 1, 3
2, 2, 5, 5
2, 0.000000, 2, 3
2, 5, 1, 2
1, 2, 2, 1
3, 1, 7, 1
1, 2, 4, 0.000000
1, 2, 5, 1
2, 1, 3, 2
0.000000, 3, 2, 1
1, 1, 3, 2
0.000000, 2, 2, 2
2, 2, 0.000000, 1
1, 2, 1, 3
1, 1, 4, 2
0.000000, 3, 0.000000, 3
2, 0.000000, 3, 2
2, 2, 0.000000, 0.000000
1, 0.000000, 0.000000, 0.000000
0.000000, 0.000000, 1, 0.000000
1, 1, 2, 3
4, 0.000000, 1, 2
0.000000, 0.000000, 0.000000, 2
3
*END

*BEGIN
*GROUP		=  0
*START		=  0.000000
*STOP		=  360
*STEP		=  0.5
*OFFSET		=
*SPEED		=  0.0833333
*SLIT_SPEC	=  0, 1/2deg., 0.87, 10
*SLIT_SPEC	=  1, 1/2deg., 0.47, 20
*SLIT_SPEC	=  2, 0.3mm, 0.3, 20
*SLIT_SPEC	=  3, 1.2mm, 8, 1.2
*KV		=  20
*MA		=  10
*LOW		=  0.000000
*HIGH		=  0.000000
*CTEMPER	=  0, 0.000000
*CTEMPER	=  1, 0.000000
*CTEMPER	=  2, 0.000000
*PAREX		=  0, 0.000000
*PAREX		=  1, 0.000000
*PAREX		=  2, 0.000000
*PAREX		=  3, 0.000000
*PAREX		=  4, 0.000000
*PAREX		=  5, 0.000000
*PAREX		=  6, 0.000000
*PAREX		=  7, 0.000000
*PAREX		=  8, 0.000000
*PAREX		=  9, 0.000000
*PAREX		=  10, 0.000000
*PAREX		=  11, 0.000000
*PAREX		=  12, 0.000000
*PAREX		=  13, 0.000000
*PAREX		=  14, 0.000000
*PAREX		=  15, 0.000000
*FULL_SCALE	=  100
*PF_AANGLE	=  90
*PF_BANGLE	=  0.000000
*INDEX		=  1, 1, 1
*COUNT		=  721
0.000000, 0.000000, 6, 2
1, 1, 1, 1
0.000000, 3, 0.000000, 1
1, 0.000000, 1, 1
5, 2, 3, 2
4, 1, 1, 6
2, 1, 3, 1
1, 1, 4, 1
4, 0.000000, 2, 0.000000
5, 1, 2, 1
2, 1, 4, 0.000000
1, 3, 0.000000, 1
5, 1, 3, 2
5, 2, 4, 0.000000
2, 1, 3, 2
2, 2, 2, 1
3, 3, 2, 4
6, 3, 2, 4
4, 2, 2, 2
3, 4, 1, 3
1, 2, 5, 3
4, 6, 3, 4
3, 4, 3, 3
3, 2, 3, 2
5, 5, 4, 6
5, 3, 3, 2
8, 5, 6, 4
7, 5, 7, 7
7, 8, 8, 5
8, 5, 10, 8
6, 8, 9, 7
7, 6, 11, 4
7, 14, 9, 21
9, 16, 13, 18
9, 14, 14, 17
18, 24, 19, 20
19, 23, 27, 24
29, 29, 23, 21
30, 30, 35, 41
44, 30, 43, 32
39, 44, 51, 66
76, 103, 122, 191
313, 499, 842, 1258
1806, 2285, 2557, 2719
2725, 2849, 2853, 2867
2681, 2420, 1710, 889
342, 104, 89, 85
70, 58, 61, 49
40, 49, 37, 49
45, 19, 32, 25
35, 18, 31, 18
26, 16, 17, 23
23, 13, 15, 17
18, 10, 12, 10
16, 9, 12, 13
11, 14, 8, 13
18, 5, 10, 6
11, 8, 15, 2
3, 7, 13, 5
3, 8, 6, 4
4, 2, 7, 5
6, 9, 6, 6
3, 5, 2, 3
5, 4, 4, 2
3, 5, 2, 1
3, 3, 2, 5
2, 3, 1, 3
5, 4, 0.000000, 1
4, 1, 2, 3
4, 0.000000, 2, 0.000000
5, 2, 2, 4
2, 1, 0.000000, 2
2, 1, 1, 1
1, 0.000000, 3, 2
3, 4, 2, 2
1, 1, 3, 2
1, 0.000000, 2, 3
0.000000, 2, 2, 6
1, 2, 0.000000, 3
4, 0.000000, 3, 0.000000
2, 1, 3, 2
1, 0.000000, 2, 0.000000
1, 0.000000, 0.000000, 3
1, 4, 1, 0.000000
2, 2, 1, 2
2, 1, 0.000000, 1
1, 1, 1, 2
2, 1, 2, 3
4, 1, 1, 3
0.000000, 0.000000, 3, 1
3, 0.000000, 6, 1
2, 0.000000, 2, 3
1, 0.000000, 0.000000, 1
0.000000, 0.000000, 0.000000, 1
0.000000, 2, 0.000000, 1
5, 1, 0.000000, 4
2, 0.000000, 1, 0.000000
0.000000, 7, 1, 1
2, 3, 0.000000, 2
1, 4, 1, 1
2, 2, 2, 1
0.000000, 2, 0.000000, 0.000000
3, 1, 0.000000, 0.000000
2, 6, 1, 1
0.000000, 4, 0.000000, 1
1, 2, 1, 4
2, 2, 1, 0.000000
1, 2, 2, 1
2, 3, 2, 0.000000
2, 1, 1, 1
2, 1, 2, 1
3, 1, 1, 4
2, 2, 1, 2
2, 5, 0.000000, 4
0.000000, 2, 2, 2
1, 2, 4, 3
3, 6, 7, 3
2, 3, 1, 3
6, 4, 4, 9
1, 4, 6, 8
6, 3, 2, 2
4, 5, 5, 3
6, 8, 4, 1
10, 9, 12, 5
6, 10, 14, 5
8, 11, 10, 15
9, 10, 14, 12
14, 20, 15, 14
15, 17, 18, 23
27, 25, 23, 22
29, 26, 25, 31
36, 45, 42, 55
66, 141, 368, 855
1224, 1436, 1479, 1488
1479, 1413, 1323, 1142
1030, 834, 633, 527
337, 236, 131, 60
46, 27, 24, 23
21, 19, 8, 8
19, 13, 21, 13
12, 10, 10, 9
14, 6, 11, 14
12, 11, 5, 11
8, 7, 5, 8
8, 10, 4, 6
4, 3, 6, 3
5, 4, 5, 5
2, 3, 5, 4
4, 6, 4, 3
6, 2, 3, 5
4, 2, 1, 2
2, 4, 2, 2
1, 3, 4, 4
2, 3, 5, 4
2, 5, 2, 6
5, 4, 4, 2
0.000000, 1, 2, 1
7, 2, 3, 2
0.000000, 2, 3, 2
1, 3, 3, 1
2, 2, 1, 2
1, 1, 2, 1
2, 1, 3, 2
2, 3, 0.000000, 1
0.000000, 0.000000, 1, 1
1, 3, 3, 0.000000
1, 4, 1, 2
5, 1, 2, 1
1, 1, 2, 2
0.000000, 2, 2, 2
3, 0.000000, 1, 2
0.000000, 2, 1, 1
0.000000, 2, 0.000000, 1
1, 1, 1, 1
0.000000, 2, 1, 1
1, 1, 1, 3
0.000000, 3, 0.000000, 0.000000
1, 0.000000, 1, 1
0.000000, 1, 1, 0.000000
0.000000, 1, 0.000000, 2
1
*END

*EOF