File: data/PoleFigure/Rigaku_xrd_111.asc
*TYPE		=  Raw
*CLASS		=  Polefig
*SAMPLE		=  111_al
*COMMENT	=  Alpha-R=15.000
*FNAME		=  111_Al_1570.raw
*DATE		=  15-Jan-13 12:19

*GROUP_COUNT	=  1
*GONIO		=  Ultima IV (185mm), 185
*ATTACHMENT	=  Multipurpose attachment 4 for Pole Fig.
*ASC		=  0, 0, 0.000000, 0.000000
*SLIT_NAME	=  0, DivSlit
*SLIT_NAME	=  1, SctSlit
*SLIT_NAME	=  2, RecSlit
*SLIT_NAME	=  3, DivH.L.Slit
*COUNTER	=  Scintillation counter, 0
*POS_FORMAT	=  0
*SCAN_AXIS	=  beta
*MEAS_MODE	=  Continuous Scanning
*TARGET		=  29
*XRAY_CHAR	=  K-ALPHA1
*WAVE_LENGTH1	=  1.54056
*WAVE_LENGTH2	=  1.5444
*THICKNESS	=  0, 0.000000
*MU		=  0, 0.000000
*SCAN_MODE	=  beta
*SPEED_DIM	=  sec./step
*XUNIT		=  deg.
*YUNIT		=  counts
*SCALE_MODE	=  1
*REP_COUNT	=  1
*SE_COUNT	=  0
*STD_MATERIAL	=  Unknown, Unknown, 0.000000, 0.000000, 0.000000, 0.000000, 0.000000, 0.000000
*LATT_CONS	=  0, Cubic, Unknown, 0.000000, 0.000000, 0.000000, 0.000000, 0.000000, 0.000000
*SEC_COUNT	=  31
*TSPEC_SIZE	=  0
*EXTRA_SIZE	=  0
*PF_MEASUR	=  Coaxial circle scan
*PF_DATATYPE	=  Integral intensity
*PF_METHOD	=  0, Unknown
*PF_METHOD	=  1, Schulz reflection method
*PF_PCOUNT	=  0, 0
*PF_PCOUNT	=  1, 31
*PF_ASTART	=  0, 15
*PF_ASTART	=  1, 15
*PF_ASTOP	=  0, 80
*PF_ASTOP	=  1, 90
*PF_ASTEP	=  0, 5
*PF_ASTEP	=  1, 2.5
*PF_ASPEED	=  0, 0.000000
*PF_ASPEED	=  1, 0.000000
*PF_GAMMA	=  0, 0.000000
*PF_GAMMA	=  1, 0.000000
*PF_2THANGLE	=  0, 0.000000
*PF_2THANGLE	=  1, 38.3845
*PF_2THSTART	=  0, 0.000000
*PF_2THSTART	=  1, 0.000000
*PF_2THSTOP	=  0, 0.000000
*PF_2THSTOP	=  1, 0.000000
*PF_2THSTEP	=  0, 0.000000
*PF_2THSTEP	=  1, 0.000000
*PF_ASPEED	=  0, 0.000000
*PF_ASPEED	=  1, 0.000000
*MEMO		=  Al

*BEGIN
*GROUP		=  0
*START		=  0.000000
*STOP		=  360
*STEP		=  2.5
*OFFSET		=
*SPEED		=  0.833333
*SLIT_SPEC	=  0, 1/2 deg., 0.87, 10
*SLIT_SPEC	=  1, 1/2 deg., 0.67, 20
*SLIT_SPEC	=  2, 0.3mm, 0.3, 20
*SLIT_SPEC	=  3, 2mm, 8, 2
*KV		=  40
*MA		=  40
*LOW		=  172.8
*HIGH		=  345.6
*CTEMPER	=  0, 0.000000
*CTEMPER	=  1, 0.000000
*CTEMPER	=  2, 0.000000
*PAREX		=  0, 0.000000
*PAREX		=  1, 0.000000
*PAREX		=  2, 0.000000
*PAREX		=  3, 0.000000
*PAREX		=  4, 0.000000
*PAREX		=  5, 0.000000
*PAREX		=  6, 0.000000
*PAREX		=  7, 0.000000
*PAREX		=  8, 0.000000
*PAREX		=  9, 0.000000
*PAREX		=  10, 0.000000
*PAREX		=  11, 0.000000
*PAREX		=  12, 0.000000
*PAREX		=  13, 0.000000
*PAREX		=  14, 0.000000
*PAREX		=  15, 0.000000
*FULL_SCALE	=  1000
*PF_AANGLE	=  15
*PF_BANGLE	=  0.000000
*INDEX		=  1, 1, 1
*COUNT		=  145
175, 202, 219, 267
257, 265, 267, 276
223, 241, 260, 224
182, 187, 164, 176
149, 144, 139, 151
144, 161, 149, 144
188, 199, 203, 244
245, 242, 296, 291
289, 301, 223, 235
209, 171, 203, 156
152, 175, 134, 135
121, 124, 152, 135
139, 162, 178, 219
200, 215, 240, 280
276, 261, 271, 268
223, 245, 204, 196
181, 172, 176, 186
169, 179, 176, 180
186, 178, 200, 194
232, 246, 233, 245
252, 264, 269, 202
207, 185, 174, 170
169, 146, 148, 162
185, 168, 162, 175
166, 190, 224, 194
233, 265, 268, 292
312, 345, 306, 335
256, 287, 265, 233
220, 185, 201, 152
209, 222, 182, 203
187, 215, 223, 246
263, 266, 255, 267
284, 315, 338, 301
287, 247, 264, 243
226, 217, 190, 177
204, 199, 222, 203
211
*END

*BEGIN
*GROUP		=  0
*START		=  0.000000
*STOP		=  360
*STEP		=  2.5
*OFFSET		=
*SPEED		=  0.833333
*SLIT_SPEC	=  0, 1/2 deg., 0.87, 10
*SLIT_SPEC	=  1, 1/2 deg., 0.67, 20
*SLIT_SPEC	=  2, 0.3mm, 0.3, 20
*SLIT_SPEC	=  3, 2mm, 8, 2
*KV		=  40
*MA		=  40
*LOW		=  172.8
*HIGH		=  345.6
*CTEMPER	=  0, 0.000000
*CTEMPER	=  1, 0.000000
*CTEMPER	=  2, 0.000000
*PAREX		=  0, 0.000000
*PAREX		=  1, 0.000000
*PAREX		=  2, 0.000000
*PAREX		=  3, 0.000000
*PAREX		=  4, 0.000000
*PAREX		=  5, 0.000000
*PAREX		=  6, 0.000000
*PAREX		=  7, 0.000000
*PAREX		=  8, 0.000000
*PAREX		=  9, 0.000000
*PAREX		=  10, 0.000000
*PAREX		=  11, 0.000000
*PAREX		=  12, 0.000000
*PAREX		=  13, 0.000000
*PAREX		=  14, 0.000000
*PAREX		=  15, 0.000000
*FULL_SCALE	=  1000
*PF_AANGLE	=  17.5
*PF_BANGLE	=  0.000000
*INDEX		=  1, 1, 1
*COUNT		=  145
277, 262, 276, 252
272, 305, 284, 307
263, 275, 239, 241
216, 216, 183, 203
183, 160, 184, 196
179, 171, 192, 179
183, 211, 218, 289
290, 303, 315, 344
326, 273, 252, 238
241, 204, 191, 225
189, 175, 172, 154
174, 160, 168, 196
180, 187, 184, 231
200, 241, 274, 311
353, 340, 329, 334
308, 285, 258, 223
221, 224, 206, 238
225, 211, 188, 204
231, 221, 249, 226
269, 302, 268, 269
259, 294, 279, 257
240, 221, 220, 206
197, 177, 172, 172
172, 158, 190, 188
219, 200, 238, 286
282, 305, 299, 353
394, 392, 373, 334
309, 307, 306, 303
271, 265, 260, 213
239, 228, 211, 217
244, 217, 240, 262
285, 297, 316, 343
313, 313, 338, 344
372, 343, 303, 280
285, 262, 257, 251
214, 221, 235, 250
252
*END

*BEGIN
*GROUP		=  0
*START		=  0.000000
*STOP		=  360
*STEP		=  2.5
*OFFSET		=
*SPEED		=  0.833333
*SLIT_SPEC	=  0, 1/2 deg., 0.87, 10
*SLIT_SPEC	=  1, 1/2 deg., 0.67, 20
*SLIT_SPEC	=  2, 0.3mm, 0.3, 20
*SLIT_SPEC	=  3, 2mm, 8, 2
*KV		=  40
*MA		=  40
*LOW		=  345.6
*HIGH		=  432
*CTEMPER	=  0, 0.000000
*CTEMPER	=  1, 0.000000
*CTEMPER	=  2, 0.000000
*PAREX		=  0, 0.000000
*PAREX		=  1, 0.000000
*PAREX		=  2, 0.000000
*PAREX		=  3, 0.000000
*PAREX		=  4, 0.000000
*PAREX		=  5, 0.000000
*PAREX		=  6, 0.000000
*PAREX		=  7, 0.000000
*PAREX		=  8, 0.000000
*PAREX		=  9, 0.000000
*PAREX		=  10, 0.000000
*PAREX		=  11, 0.000000
*PAREX		=  12, 0.000000
*PAREX		=  13, 0.000000
*PAREX		=  14, 0.000000
*PAREX		=  15, 0.000000
*FULL_SCALE	=  1000
*PF_AANGLE	=  20
*PF_BANGLE	=  0.000000
*INDEX		=  1, 1, 1
*COUNT		=  145
283, 299, 304, 301
345, 309, 323, 309
334, 263, 272, 277
240, 234, 190, 216
220, 183, 192, 189
212, 211, 188, 199
226, 232, 281, 256
308, 326, 365, 335
336, 321, 289, 284
285, 277, 231, 262
209, 192, 198, 187
188, 191, 173, 200
213, 232, 256, 272
293, 330, 349, 403
414, 436, 433, 407
364, 357, 321, 318
283, 248, 252, 253
222, 252, 259, 257
249, 274, 315, 283
290, 298, 335, 346
337, 322, 297, 278
290, 227, 219, 216
217, 212, 195, 197
197, 195, 210, 219
242, 246, 268, 274
323, 327, 340, 402
385, 354, 394, 373
408, 412, 342, 319
301, 287, 263, 241
270, 245, 256, 260
263, 249, 266, 317
309, 307, 311, 339
348, 373, 399, 387
367, 399, 335, 338
346, 302, 292, 286
247, 276, 297, 277
324
*END

*BEGIN
*GROUP		=  0
*START		=  0.000000
*STOP		=  360
*STEP		=  2.5
*OFFSET		=
*SPEED		=  0.833333
*SLIT_SPEC	=  0, 1/2 deg., 0.87, 10
*SLIT_SPEC	=  1, 1/2 deg., 0.67, 20
*SLIT_SPEC	=  2, 0.3mm, 0.3, 20
*SLIT_SPEC	=  3, 2mm, 8, 2
*KV		=  40
*MA		=  40
*LOW		=  432
*HIGH		=  518.4
*CTEMPER	=  0, 0.000000
*CTEMPER	=  1, 0.000000
*CTEMPER	=  2, 0.000000
*PAREX		=  0, 0.000000
*PAREX		=  1, 0.000000
*PAREX		=  2, 0.000000
*PAREX		=  3, 0.000000
*PAREX		=  4, 0.000000
*PAREX		=  5, 0.000000
*PAREX		=  6, 0.000000
*PAREX		=  7, 0.000000
*PAREX		=  8, 0.000000
*PAREX		=  9, 0.000000
*PAREX		=  10, 0.000000
*PAREX		=  11, 0.000000
*PAREX		=  12, 0.000000
*PAREX		=  13, 0.000000
*PAREX		=  14, 0.000000
*PAREX		=  15, 0.000000
*FULL_SCALE	=  1000
*PF_AANGLE	=  22.5
*PF_BANGLE	=  0.000000
*INDEX		=  1, 1, 1
*COUNT		=  145
324, 357, 357, 352
348, 314, 381, 301
308, 324, 285, 268
313, 241, 267, 218
235, 228, 225, 216
228, 218, 234, 247
261, 254, 297, 306
328, 355, 407, 374
405, 377, 355, 379
360, 321, 285, 276
262, 256, 222, 234
230, 237, 259, 270
247, 296, 303, 301
331, 337, 424, 454
458, 500, 486, 477
421, 392, 373, 364
284, 287, 289, 282
295, 284, 277, 295
315, 318, 371, 364
371, 389, 400, 429
394, 355, 332, 322
326, 265, 269, 226
215, 228, 224, 240
215, 232, 270, 255
248, 290, 307, 327
309, 358, 393, 394
405, 462, 424, 389
447, 395, 373, 361
303, 312, 293, 308
279, 290, 242, 250
296, 284, 308, 306
341, 311, 346, 363
373, 426, 393, 416
404, 405, 394, 393
378, 355, 311, 342
307, 314, 356, 343
361
*END

*BEGIN
*GROUP		=  0
*START		=  0.000000
*STOP		=  360
*STEP		=  2.5
*OFFSET		=
*SPEED		=  0.833333
*SLIT_SPEC	=  0, 1/2 deg., 0.87, 10
*SLIT_SPEC	=  1, 1/2 deg., 0.67, 20
*SLIT_SPEC	=  2, 0.3mm, 0.3, 20
*SLIT_SPEC	=  3, 2mm, 8, 2
*KV		=  40
*MA		=  40
*LOW		=  604.8
*HIGH		=  518.4
*CTEMPER	=  0, 0.000000
*CTEMPER	=  1, 0.000000
*CTEMPER	=  2, 0.000000
*PAREX		=  0, 0.000000
*PAREX		=  1, 0.000000
*PAREX		=  2, 0.000000
*PAREX		=  3, 0.000000
*PAREX		=  4, 0.000000
*PAREX		=  5, 0.000000
*PAREX		=  6, 0.000000
*PAREX		=  7, 0.000000
*PAREX		=  8, 0.000000
*PAREX		=  9, 0.000000
*PAREX		=  10, 0.000000
*PAREX		=  11, 0.000000
*PAREX		=  12, 0.000000
*PAREX		=  13, 0.000000
*PAREX		=  14, 0.000000
*PAREX		=  15, 0.000000
*FULL_SCALE	=  1000
*PF_AANGLE	=  25
*PF_BANGLE	=  0.000000
*INDEX		=  1, 1, 1
*COUNT		=  145
378, 395, 405, 364
375, 373, 348, 333
366, 325, 316, 299
294, 301, 242, 264
251, 247, 271, 251
253, 231, 299, 238
276, 318, 333, 352
375, 411, 395, 430
434, 391, 398, 421
371, 364, 314, 305
274, 274, 263, 298
269, 251, 274, 274
309, 313, 319, 336
384, 401, 437, 469
501, 575, 537, 513
478, 441, 447, 404
344, 376, 356, 325
345, 326, 334, 338
391, 375, 404, 415
417, 431, 427, 422
468, 445, 405, 336
346, 248, 283, 277
275, 224, 233, 257
230, 246, 286, 274
305, 322, 324, 337
364, 365, 370, 454
407, 459, 415, 446
434, 422, 407, 379
382, 342, 333, 305
315, 317, 310, 294
331, 329, 328, 326
335, 365, 361, 375
360, 392, 419, 439
375, 417, 387, 419
371, 362, 396, 398
346, 397, 357, 364
412
*END

*BEGIN
*GROUP		=  0
*START		=  0.000000
*STOP		=  360
*STEP		=  2.5
*OFFSET		=
*SPEED		=  0.833333
*SLIT_SPEC	=  0, 1/2 deg., 0.87, 10
*SLIT_SPEC	=  1, 1/2 deg., 0.67, 20
*SLIT_SPEC	=  2, 0.3mm, 0.3, 20
*SLIT_SPEC	=  3, 2mm, 8, 2
*KV		=  40
*MA		=  40
*LOW		=  777.6
*HIGH		=  518.4
*CTEMPER	=  0, 0.000000
*CTEMPER	=  1, 0.000000
*CTEMPER	=  2, 0.000000
*PAREX		=  0, 0.000000
*PAREX		=  1, 0.000000
*PAREX		=  2, 0.000000
*PAREX		=  3, 0.000000
*PAREX		=  4, 0.000000
*PAREX		=  5, 0.000000
*PAREX		=  6, 0.000000
*PAREX		=  7, 0.000000
*PAREX		=  8, 0.000000
*PAREX		=  9, 0.000000
*PAREX		=  10, 0.000000
*PAREX		=  11, 0.000000
*PAREX		=  12, 0.000000
*PAREX		=  13, 0.000000
*PAREX		=  14, 0.000000
*PAREX		=  15, 0.000000
*FULL_SCALE	=  1000
*PF_AANGLE	=  27.5
*PF_BANGLE	=  0.000000
*INDEX		=  1, 1, 1
*COUNT		=  145
421, 404, 406, 416
376, 416, 356, 359
318, 339, 319, 314
265, 340, 280, 303
272, 258, 233, 260
272, 271, 295, 314
303, 328, 347, 383
419, 384, 375, 438
477, 449, 449, 447
458, 427, 430, 389
341, 316, 313, 330
314, 282, 338, 317
309, 337, 375, 395
410, 419, 479, 551
535, 559, 597, 564
547, 509, 463, 428
429, 407, 415, 403
395, 407, 421, 409
412, 442, 441, 435
460, 445, 504, 475
475, 438, 418, 379
353, 329, 347, 311
278, 293, 297, 271
288, 285, 287, 319
321, 348, 338, 394
374, 394, 431, 410
414, 443, 428, 422
432, 436, 427, 403
363, 355, 361, 338
312, 314, 330, 332
321, 360, 340, 323
330, 326, 392, 373
412, 390, 381, 437
450, 431, 440, 408
441, 394, 401, 425
429, 411, 448, 419
441
*END

*BEGIN
*GROUP		=  0
*START		=  0.000000
*STOP		=  360
*STEP		=  2.5
*OFFSET		=
*SPEED		=  0.833333
*SLIT_SPEC	=  0, 1/2 deg., 0.87, 10
*SLIT_SPEC	=  1, 1/2 deg., 0.67, 20
*SLIT_SPEC	=  2, 0.3mm, 0.3, 20
*SLIT_SPEC	=  3, 2mm, 8, 2
*KV		=  40
*MA		=  40
*LOW		=  691.2
*HIGH		=  604.8
*CTEMPER	=  0, 0.000000
*CTEMPER	=  1, 0.000000
*CTEMPER	=  2, 0.000000
*PAREX		=  0, 0.000000
*PAREX		=  1, 0.000000
*PAREX		=  2, 0.000000
*PAREX		=  3, 0.000000
*PAREX		=  4, 0.000000
*PAREX		=  5, 0.000000
*PAREX		=  6, 0.000000
*PAREX		=  7, 0.000000
*PAREX		=  8, 0.000000
*PAREX		=  9, 0.000000
*PAREX		=  10, 0.000000
*PAREX		=  11, 0.000000
*PAREX		=  12, 0.000000
*PAREX		=  13, 0.000000
*PAREX		=  14, 0.000000
*PAREX		=  15, 0.000000
*FULL_SCALE	=  1000
*PF_AANGLE	=  30
*PF_BANGLE	=  0.000000
*INDEX		=  1, 1, 1
*COUNT		=  145
473, 435, 404, 406
379, 399, 395, 377
354, 366, 318, 298
318, 304, 284, 278
297, 327, 313, 294
294, 318, 313, 357
319, 380, 403, 386
396, 461, 456, 518
504, 539, 465, 495
489, 458, 481, 416
398, 364, 401, 392
309, 359, 321, 348
368, 399, 410, 439
434, 476, 508, 536
576, 618, 557, 568
561, 486, 514, 472
470, 427, 428, 439
461, 463, 465, 483
482, 461, 560, 512
540, 532, 499, 497
467, 469, 447, 407
379, 351, 348, 311
313, 322, 289, 282
305, 338, 303, 320
342, 351, 350, 383
381, 398, 388, 431
409, 390, 409, 443
399, 436, 412, 367
391, 329, 359, 367
347, 366, 354, 326
332, 329, 329, 329
348, 350, 344, 404
406, 438, 441, 431
453, 424, 443, 436
467, 418, 440, 475
441, 412, 404, 410
423
*END

*BEGIN
*GROUP		=  0
*START		=  0.000000
*STOP		=  360
*STEP		=  2.5
*OFFSET		=
*SPEED		=  0.833333
*SLIT_SPEC	=  0, 1/2 deg., 0.87, 10
*SLIT_SPEC	=  1, 1/2 deg., 0.67, 20
*SLIT_SPEC	=  2, 0.3mm, 0.3, 20
*SLIT_SPEC	=  3, 2mm, 8, 2
*KV		=  40
*MA		=  40
*LOW		=  777.6
*HIGH		=  604.8
*CTEMPER	=  0, 0.000000
*CTEMPER	=  1, 0.000000
*CTEMPER	=  2, 0.000000
*PAREX		=  0, 0.000000
*PAREX		=  1, 0.000000
*PAREX		=  2, 0.000000
*PAREX		=  3, 0.000000
*PAREX		=  4, 0.000000
*PAREX		=  5, 0.000000
*PAREX		=  6, 0.000000
*PAREX		=  7, 0.000000
*PAREX		=  8, 0.000000
*PAREX		=  9, 0.000000
*PAREX		=  10, 0.000000
*PAREX		=  11, 0.000000
*PAREX		=  12, 0.000000
*PAREX		=  13, 0.000000
*PAREX		=  14, 0.000000
*PAREX		=  15, 0.000000
*FULL_SCALE	=  1000
*PF_AANGLE	=  32.5
*PF_BANGLE	=  0.000000
*INDEX		=  1, 1, 1
*COUNT		=  145
468, 462, 419, 406
383, 402, 383, 398
375, 355, 351, 355
348, 352, 322, 322
360, 307, 318, 319
333, 320, 342, 385
376, 431, 424, 446
444, 469, 522, 493
529, 579, 549, 559
538, 484, 539, 481
456, 391, 385, 404
403, 386, 367, 409
401, 444, 415, 488
476, 506, 442, 514
534, 555, 610, 600
540, 539, 479, 537
474, 495, 474, 501
499, 540, 519, 499
548, 527, 542, 495
503, 570, 492, 553
496, 464, 466, 430
405, 412, 383, 357
335, 337, 344, 374
333, 420, 367, 365
403, 412, 393, 406
390, 401, 432, 416
376, 414, 435, 440
420, 396, 431, 366
393, 354, 372, 325
314, 331, 334, 321
312, 330, 375, 347
377, 350, 365, 370
390, 384, 407, 431
434, 470, 451, 459
473, 430, 465, 437
456, 467, 448, 453
456
*END

*BEGIN
*GROUP		=  0
*START		=  0.000000
*STOP		=  360
*STEP		=  2.5
*OFFSET		=
*SPEED		=  0.833333
*SLIT_SPEC	=  0, 1/2 deg., 0.87, 10
*SLIT_SPEC	=  1, 1/2 deg., 0.67, 20
*SLIT_SPEC	=  2, 0.3mm, 0.3, 20
*SLIT_SPEC	=  3, 2mm, 8, 2
*KV		=  40
*MA		=  40
*LOW		=  864
*HIGH		=  777.6
*CTEMPER	=  0, 0.000000
*CTEMPER	=  1, 0.000000
*CTEMPER	=  2, 0.000000
*PAREX		=  0, 0.000000
*PAREX		=  1, 0.000000
*PAREX		=  2, 0.000000
*PAREX		=  3, 0.000000
*PAREX		=  4, 0.000000
*PAREX		=  5, 0.000000
*PAREX		=  6, 0.000000
*PAREX		=  7, 0.000000
*PAREX		=  8, 0.000000
*PAREX		=  9, 0.000000
*PAREX		=  10, 0.000000
*PAREX		=  11, 0.000000
*PAREX		=  12, 0.000000
*PAREX		=  13, 0.000000
*PAREX		=  14, 0.000000
*PAREX		=  15, 0.000000
*FULL_SCALE	=  1000
*PF_AANGLE	=  35
*PF_BANGLE	=  0.000000
*INDEX		=  1, 1, 1
*COUNT		=  145
471, 457, 440, 487
432, 397, 394, 432
400, 394, 408, 376
363, 348, 391, 359
316, 337, 344, 364
360, 378, 410, 349
415, 446, 486, 455
498, 473, 501, 526
588, 619, 593, 601
637, 607, 517, 539
476, 429, 424, 435
408, 436, 431, 474
401, 400, 474, 471
457, 486, 441, 466
562, 539, 553, 520
562, 576, 555, 543
521, 537, 525, 550
554, 562, 553, 633
588, 609, 573, 660
597, 526, 522, 538
497, 484, 439, 436
394, 365, 351, 381
370, 359, 391, 385
411, 386, 396, 394
428, 432, 434, 385
420, 407, 435, 437
434, 424, 410, 415
414, 374, 377, 375
335, 362, 364, 330
359, 324, 340, 350
353, 310, 339, 344
341, 348, 363, 383
385, 402, 426, 405
443, 412, 445, 499
455, 482, 449, 429
485, 459, 524, 496
474
*END

*BEGIN
*GROUP		=  0
*START		=  0.000000
*STOP		=  360
*STEP		=  2.5
*OFFSET		=
*SPEED		=  0.833333
*SLIT_SPEC	=  0, 1/2 deg., 0.87, 10
*SLIT_SPEC	=  1, 1/2 deg., 0.67, 20
*SLIT_SPEC	=  2, 0.3mm, 0.3, 20
*SLIT_SPEC	=  3, 2mm, 8, 2
*KV		=  40
*MA		=  40
*LOW		=  864
*HIGH		=  518.4
*CTEMPER	=  0, 0.000000
*CTEMPER	=  1, 0.000000
*CTEMPER	=  2, 0.000000
*PAREX		=  0, 0.000000
*PAREX		=  1, 0.000000
*PAREX		=  2, 0.000000
*PAREX		=  3, 0.000000
*PAREX		=  4, 0.000000
*PAREX		=  5, 0.000000
*PAREX		=  6, 0.000000
*PAREX		=  7, 0.000000
*PAREX		=  8, 0.000000
*PAREX		=  9, 0.000000
*PAREX		=  10, 0.000000
*PAREX		=  11, 0.000000
*PAREX		=  12, 0.000000
*PAREX		=  13, 0.000000
*PAREX		=  14, 0.000000
*PAREX		=  15, 0.000000
*FULL_SCALE	=  1000
*PF_AANGLE	=  37.5
*PF_BANGLE	=  0.000000
*INDEX		=  1, 1, 1
*COUNT		=  145
522, 450, 444, 429
455, 433, 425, 415
461, 424, 399, 396
410, 369, 366, 415
374, 406, 373, 377
388, 408, 406, 432
455, 462, 507, 505
580, 571, 603, 614
611, 622, 629, 669
637, 613, 593, 582
537, 523, 493, 486
415, 441, 445, 455
446, 460, 464, 453
463, 471, 486, 503
541, 541, 544, 508
536, 540, 571, 534
543, 579, 601, 580
591, 600, 639, 641
598, 608, 626, 631
600, 606, 576, 542
527, 501, 506, 476
466, 464, 442, 458
440, 417, 392, 425
412, 398, 395, 428
488, 456, 469, 473
456, 466, 436, 415
448, 396, 399, 426
400, 427, 339, 399
364, 342, 358, 322
366, 341, 302, 324
305, 324, 320, 340
340, 381, 350, 360
388, 380, 397, 428
429, 467, 511, 466
482, 509, 494, 491
461, 508, 486, 446
474
*END

*BEGIN
*GROUP		=  0
*START		=  0.000000
*STOP		=  360
*STEP		=  2.5
*OFFSET		=
*SPEED		=  0.833333
*SLIT_SPEC	=  0, 1/2 deg., 0.87, 10
*SLIT_SPEC	=  1, 1/2 deg., 0.67, 20
*SLIT_SPEC	=  2, 0.3mm, 0.3, 20
*SLIT_SPEC	=  3, 2mm, 8, 2
*KV		=  40
*MA		=  40
*LOW		=  1123.2
*HIGH		=  864
*CTEMPER	=  0, 0.000000
*CTEMPER	=  1, 0.000000
*CTEMPER	=  2, 0.000000
*PAREX		=  0, 0.000000
*PAREX		=  1, 0.000000
*PAREX		=  2, 0.000000
*PAREX		=  3, 0.000000
*PAREX		=  4, 0.000000
*PAREX		=  5, 0.000000
[...]
*PAREX		=  7, 0.000000
*PAREX		=  8, 0.000000
*PAREX		=  9, 0.000000
*PAREX		=  10, 0.000000
*PAREX		=  11, 0.000000
*PAREX		=  12, 0.000000
*PAREX		=  13, 0.000000
*PAREX		=  14, 0.000000
*PAREX		=  15, 0.000000
*FULL_SCALE	=  1000
*PF_AANGLE	=  77.5
*PF_BANGLE	=  0.000000
*INDEX		=  1, 1, 1
*COUNT		=  145
1243, 1162, 1161, 1178
1208, 1258, 1211, 1182
1220, 1132, 1189, 1158
1145, 1175, 1129, 1142
1034, 1129, 1085, 1009
1023, 989, 989, 1018
1039, 954, 953, 887
915, 929, 840, 862
853, 809, 830, 825
794, 790, 781, 773
746, 791, 720, 761
733, 794, 735, 691
705, 706, 731, 707
651, 688, 694, 711
710, 691, 657, 640
605, 656, 688, 740
711, 712, 690, 730
695, 662, 729, 712
710, 712, 728, 776
755, 748, 730, 812
727, 712, 713, 761
795, 825, 796, 814
846, 821, 851, 873
893, 864, 879, 895
873, 887, 855, 952
984, 953, 905, 939
1006, 972, 950, 981
954, 980, 1037, 1004
965, 1012, 1052, 999
1017, 990, 1069, 1037
1051, 1035, 1120, 1076
1056, 1114, 1063, 1127
1122, 1100, 1106, 1092
1166, 1139, 1122, 1215
1155, 1124, 1069, 1189
1121, 1135, 1117, 1126
1162
*END

*BEGIN
*GROUP		=  0
*START		=  0.000000
*STOP		=  360
*STEP		=  2.5
*OFFSET		=
*SPEED		=  0.833333
*SLIT_SPEC	=  0, 1/2 deg., 0.87, 10
*SLIT_SPEC	=  1, 1/2 deg., 0.67, 20
*SLIT_SPEC	=  2, 0.3mm, 0.3, 20
*SLIT_SPEC	=  3, 2mm, 8, 2
*KV		=  40
*MA		=  40
*LOW		=  1900.8
*HIGH		=  1900.8
*CTEMPER	=  0, 0.000000
*CTEMPER	=  1, 0.000000
*CTEMPER	=  2, 0.000000
*PAREX		=  0, 0.000000
*PAREX		=  1, 0.000000
*PAREX		=  2, 0.000000
*PAREX		=  3, 0.000000
*PAREX		=  4, 0.000000
*PAREX		=  5, 0.000000
*PAREX		=  6, 0.000000
*PAREX		=  7, 0.000000
*PAREX		=  8, 0.000000
*PAREX		=  9, 0.000000
*PAREX		=  10, 0.000000
*PAREX		=  11, 0.000000
*PAREX		=  12, 0.000000
*PAREX		=  13, 0.000000
*PAREX		=  14, 0.000000
*PAREX		=  15, 0.000000
*FULL_SCALE	=  1000
*PF_AANGLE	=  80
*PF_BANGLE	=  0.000000
*INDEX		=  1, 1, 1
*COUNT		=  145
910, 953, 997, 991
974, 942, 991, 946
1010, 894, 930, 904
892, 928, 894, 897
902, 882, 900, 863
907, 807, 770, 906
854, 800, 772, 784
756, 731, 790, 774
734, 729, 701, 755
659, 680, 697, 674
698, 682, 675, 667
683, 630, 656, 622
692, 652, 588, 612
583, 626, 654, 610
632, 643, 620, 586
617, 598, 654, 647
641, 653, 638, 676
633, 604, 694, 638
633, 605, 635, 658
641, 683, 713, 658
688, 648, 742, 707
704, 663, 713, 718
699, 689, 749, 780
782, 742, 770, 796
784, 811, 811, 820
775, 783, 791, 781
828, 800, 832, 812
838, 828, 823, 871
870, 870, 851, 881
896, 858, 900, 892
892, 907, 916, 878
943, 927, 959, 948
965, 965, 946, 986
944, 979, 946, 914
878, 959, 922, 932
990, 990, 995, 964
939
*END

*BEGIN
*GROUP		=  0
*START		=  0.000000
*STOP		=  360
*STEP		=  2.5
*OFFSET		=
*SPEED		=  0.833333
*SLIT_SPEC	=  0, 1/2 deg., 0.87, 10
*SLIT_SPEC	=  1, 1/2 deg., 0.67, 20
*SLIT_SPEC	=  2, 0.3mm, 0.3, 20
*SLIT_SPEC	=  3, 2mm, 8, 2
*KV		=  40
*MA		=  40
*LOW		=  1900.8
*HIGH		=  1987.2
*CTEMPER	=  0, 0.000000
*CTEMPER	=  1, 0.000000
*CTEMPER	=  2, 0.000000
*PAREX		=  0, 0.000000
*PAREX		=  1, 0.000000
*PAREX		=  2, 0.000000
*PAREX		=  3, 0.000000
*PAREX		=  4, 0.000000
*PAREX		=  5, 0.000000
*PAREX		=  6, 0.000000
*PAREX		=  7, 0.000000
*PAREX		=  8, 0.000000
*PAREX		=  9, 0.000000
*PAREX		=  10, 0.000000
*PAREX		=  11, 0.000000
*PAREX		=  12, 0.000000
*PAREX		=  13, 0.000000
*PAREX		=  14, 0.000000
*PAREX		=  15, 0.000000
*FULL_SCALE	=  1000
*PF_AANGLE	=  82.5
*PF_BANGLE	=  0.000000
*INDEX		=  1, 1, 1
*COUNT		=  145
760, 790, 762, 755
780, 782, 757, 737
710, 786, 748, 732
704, 735, 777, 751
749, 675, 717, 710
692, 663, 739, 645
735, 659, 645, 690
613, 659, 638, 644
644, 600, 600, 626
617, 631, 649, 590
598, 603, 599, 640
593, 579, 606, 515
618, 605, 593, 552
612, 569, 564, 543
547, 605, 586, 592
592, 573, 595, 565
544, 578, 579, 605
587, 581, 594, 612
606, 621, 573, 586
543, 615, 643, 618
654, 628, 643, 642
662, 651, 619, 691
697, 687, 633, 677
607, 673, 694, 613
688, 697, 698, 676
667, 678, 711, 690
707, 693, 732, 722
739, 743, 692, 762
710, 737, 706, 789
736, 795, 721, 736
769, 727, 754, 817
759, 814, 748, 799
807, 775, 785, 781
799, 756, 774, 762
784, 760, 763, 778
780, 782, 765, 739
767
*END

*BEGIN
*GROUP		=  0
*START		=  0.000000
*STOP		=  360
*STEP		=  2.5
*OFFSET		=
*SPEED		=  0.833333
*SLIT_SPEC	=  0, 1/2 deg., 0.87, 10
*SLIT_SPEC	=  1, 1/2 deg., 0.67, 20
*SLIT_SPEC	=  2, 0.3mm, 0.3, 20
*SLIT_SPEC	=  3, 2mm, 8, 2
*KV		=  40
*MA		=  40
*LOW		=  2246.4
*HIGH		=  1641.6
*CTEMPER	=  0, 0.000000
*CTEMPER	=  1, 0.000000
*CTEMPER	=  2, 0.000000
*PAREX		=  0, 0.000000
*PAREX		=  1, 0.000000
*PAREX		=  2, 0.000000
*PAREX		=  3, 0.000000
*PAREX		=  4, 0.000000
*PAREX		=  5, 0.000000
*PAREX		=  6, 0.000000
*PAREX		=  7, 0.000000
*PAREX		=  8, 0.000000
*PAREX		=  9, 0.000000
*PAREX		=  10, 0.000000
*PAREX		=  11, 0.000000
*PAREX		=  12, 0.000000
*PAREX		=  13, 0.000000
*PAREX		=  14, 0.000000
*PAREX		=  15, 0.000000
*FULL_SCALE	=  1000
*PF_AANGLE	=  85
*PF_BANGLE	=  0.000000
*INDEX		=  1, 1, 1
*COUNT		=  145
602, 674, 576, 614
637, 615, 624, 587
636, 648, 653, 605
654, 605, 590, 575
659, 618, 625, 611
614, 581, 603, 608
570, 583, 611, 621
586, 627, 602, 579
590, 589, 601, 561
607, 586, 560, 629
540, 552, 584, 576
559, 585, 598, 558
523, 617, 563, 569
599, 625, 567, 602
579, 572, 608, 618
583, 617, 564, 605
667, 585, 591, 598
561, 617, 587, 586
631, 666, 600, 602
679, 597, 592, 632
554, 609, 565, 613
613, 572, 587, 670
573, 611, 615, 589
647, 581, 662, 694
626, 631, 622, 647
644, 653, 619, 654
661, 610, 652, 609
655, 647, 642, 664
650, 631, 713, 648
680, 682, 658, 668
664, 674, 633, 647
695, 650, 645, 665
655, 616, 653, 660
675, 640, 659, 644
650, 658, 642, 655
600, 640, 642, 642
633
*END

*BEGIN
*GROUP		=  0
*START		=  0.000000
*STOP		=  360
*STEP		=  2.5
*OFFSET		=
*SPEED		=  0.833333
*SLIT_SPEC	=  0, 1/2 deg., 0.87, 10
*SLIT_SPEC	=  1, 1/2 deg., 0.67, 20
*SLIT_SPEC	=  2, 0.3mm, 0.3, 20
*SLIT_SPEC	=  3, 2mm, 8, 2
*KV		=  40
*MA		=  40
*LOW		=  2160
*HIGH		=  1555.2
*CTEMPER	=  0, 0.000000
*CTEMPER	=  1, 0.000000
*CTEMPER	=  2, 0.000000
*PAREX		=  0, 0.000000
*PAREX		=  1, 0.000000
*PAREX		=  2, 0.000000
*PAREX		=  3, 0.000000
*PAREX		=  4, 0.000000
*PAREX		=  5, 0.000000
*PAREX		=  6, 0.000000
*PAREX		=  7, 0.000000
*PAREX		=  8, 0.000000
*PAREX		=  9, 0.000000
*PAREX		=  10, 0.000000
*PAREX		=  11, 0.000000
*PAREX		=  12, 0.000000
*PAREX		=  13, 0.000000
*PAREX		=  14, 0.000000
*PAREX		=  15, 0.000000
*FULL_SCALE	=  1000
*PF_AANGLE	=  87.5
*PF_BANGLE	=  0.000000
*INDEX		=  1, 1, 1
*COUNT		=  145
579, 607, 549, 600
578, 592, 570, 584
565, 590, 540, 579
579, 550, 557, 595
555, 620, 611, 582
604, 533, 589, 580
598, 595, 589, 601
627, 595, 588, 606
579, 578, 587, 568
621, 577, 615, 613
610, 584, 607, 638
611, 615, 614, 596
618, 604, 612, 657
655, 618, 592, 636
629, 612, 666, 660
685, 609, 700, 636
672, 640, 621, 682
629, 678, 633, 671
638, 654, 679, 650
677, 666, 669, 629
650, 690, 650, 670
650, 735, 627, 634
648, 651, 700, 657
652, 658, 686, 664
614, 632, 656, 628
654, 616, 633, 641
671, 675, 640, 660
595, 631, 631, 579
664, 716, 641, 596
596, 608, 651, 621
612, 596, 650, 650
596, 617, 586, 623
613, 605, 562, 599
553, 647, 615, 594
626, 632, 590, 596
650, 612, 576, 559
560
*END

*BEGIN
*GROUP		=  0
*START		=  0.000000
*STOP		=  360
*STEP		=  2.5
*OFFSET		=
*SPEED		=  0.833333
*SLIT_SPEC	=  0, 1/2 deg., 0.87, 10
*SLIT_SPEC	=  1, 1/2 deg., 0.67, 20
*SLIT_SPEC	=  2, 0.3mm, 0.3, 20
*SLIT_SPEC	=  3, 2mm, 8, 2
*KV		=  40
*MA		=  40
*LOW		=  1900.8
*HIGH		=  1900.8
*CTEMPER	=  0, 0.000000
*CTEMPER	=  1, 0.000000
*CTEMPER	=  2, 0.000000
*PAREX		=  0, 0.000000
*PAREX		=  1, 0.000000
*PAREX		=  2, 0.000000
*PAREX		=  3, 0.000000
*PAREX		=  4, 0.000000
*PAREX		=  5, 0.000000
*PAREX		=  6, 0.000000
*PAREX		=  7, 0.000000
*PAREX		=  8, 0.000000
*PAREX		=  9, 0.000000
*PAREX		=  10, 0.000000
*PAREX		=  11, 0.000000
*PAREX		=  12, 0.000000
*PAREX		=  13, 0.000000
*PAREX		=  14, 0.000000
*PAREX		=  15, 0.000000
*FULL_SCALE	=  1000
*PF_AANGLE	=  90
*PF_BANGLE	=  0.000000
*INDEX		=  1, 1, 1
*COUNT		=  145
653, 636, 657, 606
598, 629, 659, 581
638, 658, 658, 595
600, 617, 663, 666
648, 638, 662, 616
666, 666, 679, 683
707, 702, 661, 641
626, 654, 671, 686
643, 732, 674, 693
717, 638, 698, 711
685, 666, 635, 679
693, 716, 751, 684
749, 777, 739, 769
738, 746, 769, 760
778, 810, 756, 783
798, 823, 778, 802
830, 766, 810, 807
845, 817, 771, 776
806, 800, 784, 835
783, 800, 781, 846
808, 757, 775, 812
766, 859, 793, 795
802, 800, 775, 739
746, 758, 747, 768
762, 773, 781, 752
737, 685, 738, 716
710, 676, 651, 699
692, 693, 721, 713
738, 647, 707, 660
642, 645, 651, 706
591, 588, 645, 589
612, 639, 640, 644
632, 634, 681, 644
609, 616, 641, 644
608, 604, 612, 612
581, 601, 571, 613
594
*END

*EOF